Iron (EQUALS RADII, ALF=2/3)  (Title)
  23.20                        (Lattice constant (a.u.; 1au=0.5292A))
  1.000  0.0000  0.0000
  0.000  0.2460  0.0000
  0.259  0.0000  0.966
   2
O
    12 8.0000  6.0000  1.3
  0.000  1.000  0.000
  0.510  0.870  0.000
  0.312  1.000 -0.073
  0.817  0.870 -0.073
  0.118  0.870 -0.147
  0.621  1.000 -0.147
 -0.045  1.000 -0.221
  0.452  0.870 -0.221
 -0.229  0.870 -0.306
  0.270  1.000 -0.306
  0.078  0.870 -0.373
  0.580  1.000 -0.373
Ga
   8 31.0000  3.0000  2.2
  0.237  0.870  -0.049
  0.727  1.000  -0.049
 -0.030  0.870  -0.094
  0.473  1.000  -0.094
  0.120  1.000  -0.268
  0.618  0.870  -0.268
 -0.150  1.000  -0.324
  0.346  0.870  -0.324
  3
  0.7063
  10

